timestamp,label,F3,F4,C3,Cz,C4,P3,P4,accX,accY,accZ
0.0,r,8757.988432212618,8696.323048469585,7568.892140526749,6872.893227685462,6088.9984168917,8175.053132876979,6518.792249406626,-50.25,924.9375,-229.625
1.0,r,-722.5118626982712,-717.292286018218,-623.7816644257706,-567.827728218873,-501.84215561291916,-672.8271736323779,-535.5620436200609,-51.875,924.6875,-232.125
2.0,r,-541.2796626651556,-538.6644152067515,-467.6370268531507,-424.4229249846404,-377.5183050181604,-506.6008232205624,-406.13522525632203,-57.625,923.4375,-232.8125
3.0,r,91.9963454696497,92.21250975982181,79.37102160892124,72.25895479904257,65.11680914546471,86.68724891805631,71.65975632076282,-60.375,923.9375,-233.375
4.0,r,0.6959183561596964,1.3990689007063606,0.9151741401843083,0.5208682746162376,0.5427321798472285,0.4741588434123646,-0.44550611372152255,-57.0,925.5,-227.8125
5.0,l,-0.9004417228464615,-2.0234721225201127,-2.011418520711507,-1.2192995810507214,-1.6840184891372123,-1.4610078652538405,-1.5039837750310792,-53.9375,927.4375,-221.5625
6.0,l,0.19531889275511288,1.4521397369674838,1.0799227279401737,0.9757889727946338,1.1115547760780533,0.9282676577651321,1.3690890478644424,-54.4375,927.6875,-219.1875
7.0,l,-1.5809170292701162,-1.462694933621493,-1.4375159427063549,-1.3168537688841524,-0.9316828753980473,-1.3715732160107765,-1.3782670923326759,-53.1875,928.375,-215.75
8.0,l,2.101012505384492,1.069869648922092,1.0701950392556585,1.1266706948564744,1.2684404757572478,0.5676223578021004,2.0838049992052476,-52.1875,929.9375,-213.8125
9.0,l,-1.8579914302555274,0.13681884093542862,-0.09285496210066264,0.5395283514404187,-0.2387013697600073,1.151458292980912,-0.6556563415771487,-51.875,929.9375,-210.875
10.0,l,3.1818434473515302,0.1147551214501849,1.5948490508639352,-0.8940465022549645,-0.060524137655963615,-0.46640284722515046,-0.6076621074425957,-50.125,932.0625,-205.9375
11.0,r,-2.745646883169426,-1.3012786649612216,-2.29360257890317,0.8579163906369703,-0.36636528085355313,-0.8529640103682042,-0.4233353169933994,-49.25,931.9375,-200.5625
12.0,r,1.8373668124434657,2.0618404190098873,1.6623879230766803,-0.4604312890136916,0.7629624003153574,1.400114635450273,-0.03521960205907055,-52.8125,932.9375,-201.0
13.0,l,-0.15750751755103123,-0.6891458825068355,0.07081985133966595,0.7414048783811932,-0.39451476701885924,-0.05948146073592022,1.4679679082404495,-50.4375,933.125,-199.5625
14.0,l,-2.935494703494386,-2.4491956672141333,-3.383579576918697,-3.4255156023942486,-2.199705075445296,-3.4656807651545036,-3.2481336587351435,-50.5625,932.625,-199.625
15.0,r,3.363028791147307,3.9151512361413223,4.64871248198881,4.272446240251837,3.9252311884854207,5.061022430253766,4.158129264807134,-49.25,933.5625,-199.3125
16.0,r,-0.9911326366702505,-2.202887033924451,-2.74256695261561,-2.045140059185269,-3.1770626888741136,-2.4776183694959055,-3.340935443076889,-49.1875,934.6875,-197.625
17.0,r,-0.5095802582951224,0.3138216852523157,1.091395337178872,0.7104764486620408,2.144560700166488,0.3766464978117983,2.6443736644884703,-47.625,935.0625,-196.0625
18.0,r,0.058496465668309613,-0.18835087192946195,-0.6098695433934036,-1.037588100521665,-1.3663428107603888,0.1456462920084495,-1.7526283809267689,-48.0,933.875,-198.1875
19.0,r,1.1095834158461215,1.2769247967496828,0.36925905814357746,1.3255963254001866,1.065140978185211,-1.1617765045253192,0.6857327620584306,-46.3125,933.4375,-196.9375
20.0,r,-1.0331405826140507,-1.4687754294174584,-0.10614297531462083,-0.6232402006390337,-0.9530069111932419,1.1212476245787055,-0.06498600322880577,-45.5,933.5625,-197.6875
21.0,r,-0.9373259105635784,0.010024694920916318,-0.9987350262088371,-0.6657935851718896,-0.04999087519615546,-1.0373929617545792,0.15120530322105855,-45.6875,933.9375,-197.9375
22.0,r,2.0083345383257507,1.194566512777842,1.8335143711323898,0.5273238510113966,1.0340906315893672,0.9002169514145146,0.30976367942896527,-45.4375,932.9375,-198.0
23.0,l,-0.10775974671165352,0.3300442682376421,0.40966459634508745,2.2733268663590573,1.2983428144496585,1.5920215627773882,2.0597023571477067,-46.5625,934.9375,-193.3125
24.0,l,-1.7435849152795528,-1.8133377065895213,-2.4611170651958685,-3.2341065958673862,-3.2916634191853973,-3.0280935543831338,-3.9801014755144335,-45.375,935.5,-194.0625
25.0,l,0.9618316093908011,1.2816550772630426,1.857137884151302,1.8618602324769915,2.3640229710801495,2.5094539684605475,3.4423341630573754,-43.9375,935.4375,-192.375
26.0,l,-2.3472856813822003,-2.928544027493247,-2.8001522334129056,-2.635741520806311,-3.19810020672753,-3.204737789543158,-3.7091461920211515,-45.4375,936.3125,-189.9375
27.0,r,2.750582867671442,2.9615979268304673,2.6406602618533217,2.6501331368888676,2.8315076967260993,2.044765289948151,2.1887267676627453,-43.1875,936.25,-187.9375
28.0,r,-0.6288874261961886,-0.1707996507904371,-0.20978364828019858,-0.6358580106126173,0.19034181521949006,0.38177437153923804,0.15947326293208175,-45.6875,936.5625,-190.375
29.0,l,-0.021648684665314364,-1.798562823130629,-0.4802605951820401,-0.23254266061034945,-1.386418654560398,-0.8042284917766892,-1.4904042269673397,-47.4375,935.5,-191.4375
30.0,l,3.4857435446022955,5.779106544680686,2.5546505426974897,0.6032295450747147,3.1121667555899024,4.2075580776531245,5.002831634127177,-47.5625,933.625,-193.125
31.0,l,-8.002266110887241,-8.736541544507306,-6.979547965456921,-2.3320046342745964,-6.7618113451637365,-6.512529241405042,-8.055327148817327,-41.9375,934.9375,-191.125
32.0,l,3.3854299620695327,2.8499144616059486,4.205282221838643,0.764807151620606,4.0217937363697365,1.8490617755028884,4.304953237358821,-39.0,935.5,-193.0
33.0,l,2.9806791962237322,3.4931994792071963,1.4200482118460545,1.7976644478138597,0.8488653253869819,1.541653794827144,-0.4189580053355164,-38.25,936.6875,-190.4375
34.0,l,-1.3596785503451578,-1.5252982330920926,0.054372999037341344,0.8931340582647351,0.2891505076965114,1.0119978708004183,1.3040883591597994,-40.875,935.0625,-193.0625
35.0,l,-1.4978041855602082,-1.5815563946515303,-1.8827063857035633,-2.588907052327906,-1.4020918900527244,-2.2249230224657874,-1.5280880167130217,-39.4375,933.5,-195.5
36.0,l,1.3082652190004231,1.1782978673591977,1.3539971519361729,1.7759449712251898,1.016301231288506,0.7382305140429605,1.0887226091855104,-40.3125,933.6875,-201.5
37.0,l,-0.13665368095198926,-0.2380982046129638,-0.6389510079242036,-1.0541734907842588,-0.8353596320419706,-0.5196317942968575,-0.7112003847893519,-36.9375,934.5625,-198.75
38.0,l,-0.5945329648701161,-0.7747878237901786,-0.5770097880395301,-0.7979424022962897,-0.8152075145989416,-0.25154805372630495,-1.2083836778019874,-37.5625,934.1875,-196.5
39.0,r,0.17232755377344858,0.7504908159317676,-0.17853017970520205,0.444635816570793,0.5809081866772021,-0.3889108593190908,0.9638657088971828,-38.625,933.8125,-199.0
40.0,r,1.4709357368147575,0.2665351530613517,2.012646368979693,1.2140699565762976,1.4290770351199498,2.272478395213634,0.46141037831455345,-37.0625,934.5625,-198.8125
41.0,r,-3.568100469874872,-2.287845163520377,-3.246007222333662,-2.6280409266525386,-2.885381801723893,-3.4286360208664877,-1.9704641934757317,-37.125,934.25,-198.9375
42.0,r,3.293667820677707,2.8168416964289418,3.4128991938683066,3.2773419294863135,2.9204837646793598,3.1033852606886496,1.8829181069194534,-33.3125,932.8125,-198.125
43.0,r,-1.5791330775926762,-1.3312436162386567,-1.5148566212107628,-1.6718881919890456,-1.383805587055044,-1.2092800745171375,0.4790270280076211,-34.1875,933.0625,-200.1875
44.0,r,0.10941612790944123,-0.4114617477422363,-0.9772123551992848,-0.38876639797328877,-0.6605074184443427,-0.54485918451905,-1.5812565297760544,-36.875,933.25,-202.75
45.0,r,1.58273799171412,1.8009715830816786,2.230533553621656,1.5231046410437998,1.5806975076012262,1.634378032898511,1.7088479726696377,-38.125,932.8125,-201.75
46.0,r,-1.719621184052829,-1.6246560008423008,-2.0919580991155624,-1.1192936345319056,-1.2217086624897646,-1.8908006986880777,-1.9605396384013434,-37.9375,934.3125,-200.625
47.0,r,0.9177911092499714,0.6859780722641676,0.3570543357815679,-0.5716719338400112,0.4498946126008038,0.7409854909455205,0.8663048469199576,-35.75,935.1875,-198.5625
48.0,l,-0.3025050111574273,-0.08342585205959295,1.1083868719618353,0.6710968450362038,0.8586371749010723,1.7230795368840868,0.5496583699920059,-34.25,935.375,-196.375
49.0,l,-1.1695237005044707,-0.5561210180964761,-1.6290444303137266,-1.0858439382961074,-1.5983089202758152,-2.8644784233182983,-1.4924896004848411,-33.5,934.1875,-193.5
50.0,l,1.3064025958767078,1.6444736697721627,0.7194219645627113,1.400130001877687,1.6990592157144568,0.47190841165067465,1.7664923687400826,-35.625,935.4375,-194.375
51.0,l,-2.6140708520542755,-3.3838461380314246,-0.8885736143482834,-1.974642567043981,-2.256220568418754,-0.1588061917131813,-1.145471768728063,-57.375,932.5625,-200.75
52.0,l,8.374870102757054,7.916074575440766,3.837479657689406,4.7722367891942366,4.055772210501643,2.0821992983698947,1.6648011789294397,-63.8125,933.6875,-197.8125
53.0,n,-5.802846259927159,-5.883785746255765,-2.741156460981078,-2.572310080671579,-2.4015599192610484,-1.5386137183625188,-0.816636159471191,-40.25,934.0625,-187.1875
54.0,n,-4.454745090209585,-4.005327017451944,-1.5275837828218075,-2.1725826381682407,-2.5474794374425267,-0.7743609197011574,-1.5602065227027877,-39.1875,934.25,-200.4375
55.0,n,6.3154087205159275,5.717188057762163,2.6682543690777685,2.879846932208608,3.1863133085799618,2.1386268549563865,2.193612181084917,-47.0625,933.25,-197.1875
56.0,l,-1.6393914499750304,-0.6299483221354747,-0.20948867283155143,-0.6015677921985325,-0.061901614111420034,0.11471188559412622,0.04468527165010664,-48.4375,933.3125,-200.9375
57.0,l,0.5605289850885843,-0.5589133040243082,-0.12557931017918322,0.8489755425959248,-0.1482359112164205,-0.9413223696032724,-0.44680504693502315,-48.9375,933.0,-200.4375
58.0,l,-1.622945233222464,-0.8212060814605877,-1.8205043787138124,-2.739049940038996,-1.5541097499375787,-0.587954881033892,-0.6946876387428578,-43.6875,933.375,-199.3125
59.0,l,-2.7827154752581027,-2.2075996341920963,-1.380484425276235,-0.913582488257628,-0.6310517228019944,-1.4889218906320576,-1.0861245835720925,-43.3125,935.0,-190.875
60.0,l,3.7637621628438183,3.419287933474117,1.709066928355126,2.529921641666356,1.5845747199714595,1.0501290486444887,0.9529660412621506,-47.0625,935.1875,-191.25
61.0,l,0.9638936779570108,0.24772305936281844,2.0299438147800535,1.2941124897283611,0.7561097796477895,2.0049200099855717,0.8030188906211476,-45.8125,935.25,-194.0625
62.0,r,-0.18300873082039198,-0.5533832674864966,-1.1138851761434316,-1.609735727382572,-0.6916773363629782,-1.4364934273037897,-0.47084771093082883,-43.9375,935.5625,-191.25
63.0,r,-1.4556568535179157,-0.8212151666828204,-0.16952409603633464,0.006802969729208826,-0.2498937529147247,0.6196704568623115,-0.32062408018623206,-42.8125,935.6875,-189.0
64.0,l,1.5883652435100788,1.8013096159902091,1.50174817215708,1.034907898101858,1.6435625478716385,0.939906077617989,1.3289831482142487,-44.6875,937.0,-189.75
65.0,l,-1.9139164182671198,-2.208468237196063,-1.8874311812133875,-1.9985761269073945,-1.9934088768618308,-1.5830927273343736,-2.011683778797368,-42.25,936.0625,-187.25
66.0,l,1.0612396963406205,1.837998611822293,1.5507253398450167,1.6236097009275943,1.458125646288645,1.719215875015747,2.174622650901035,-39.9375,936.375,-187.4375
67.0,r,-0.7599885722649645,-0.8913919556579208,-1.2445852361879002,-0.8820459829193994,-0.5576521762839095,-1.2289594690353565,-1.8809620702694465,-38.8125,936.4375,-186.9375
68.0,r,0.22591194721377383,0.5033182815216535,0.7101099597735993,0.8544115776050089,-0.2087486347582534,0.4653543130613119,-0.007883729571663934,-40.0,936.5,-183.375
69.0,r,-0.0827968749891154,-0.9628041147610209,-0.5165409506631214,-1.3743433327842138,-0.3645970339500252,-0.1501650880057057,0.3520384390291092,-40.625,936.375,-187.0
70.0,r,0.32151296401576496,0.0370434893064139,0.8129482136831856,0.8859239833911121,-0.4158275772034558,1.1318781308780235,0.4540037066848672,-39.5625,937.9375,-186.0625
71.0,r,-0.4019448824153081,0.15702578017291466,-0.9442417655888922,-0.6379634356379543,0.30109577066768767,-1.351879241239137,-0.19010294638987738,-40.4375,936.1875,-183.8125
72.0,r,0.231732654832957,-0.013748721351706536,-0.15343718015325122,0.9215613240368934,0.014279279620985562,-1.162960316861831,-0.08110501301997965,-41.0625,938.25,-183.0625
73.0,r,0.8436977826661083,1.0006194628701792,0.997201229956527,0.9550476273924169,1.0562019892798007,2.4675443023008854,1.5301902786237433,-37.9375,936.4375,-183.25
74.0,r,0.4442882271444855,0.2562289085056575,0.2323706050095343,-0.8028546007837226,0.41264553881199484,-0.6749005785637878,-0.9208339939295657,-39.8125,937.75,-182.9375
75.0,r,-2.0314142369107193,-1.7433052286129127,-2.102733982854002,-0.8725319234937606,-2.565942582191721,-1.4278642765640783,-1.1829499436134256,-39.6875,938.375,-179.4375
76.0,r,1.2196177942294288,1.3764325770394317,0.8360867333852411,0.25780434058042956,1.6086046263622598,0.04802116524282576,0.9650919585702663,-39.875,937.1875,-179.25
77.0,r,-0.499768078451953,-0.780852154596901,0.03705300566224469,0.4057204119417929,-0.06971006759965621,-0.05950789729423923,-1.2336545060903772,-40.0,937.5625,-180.3125
78.0,r,0.19431519420434665,0.6276732998643406,0.44084417114112945,-0.7133281538236738,-0.0984403246408292,0.7981289283509634,1.4344225609082766,-40.75,937.1875,-184.375
79.0,r,0.6047854296199302,0.3704149628468745,0.3163143299641544,0.8978597503141061,0.4078344480028005,0.7260984353921274,-0.14241381991378194,-42.9375,933.75,-196.0
80.0,r,-0.6739971462162826,-0.7778393523886127,-0.3949701526813917,-0.6847805402853683,-0.31280441721774344,-1.226760883039956,-0.16781978758059352,-43.75,932.6875,-200.375
81.0,r,1.4976750037814897,1.8741843818513817,1.2371707539768222,1.629717796219041,1.4458858013258133,1.5485116691764191,1.3809299441783478,-42.0625,935.0625,-195.5625
82.0,r,-1.2267027747714743,-1.3091266277359974,-1.6239310785684404,-1.4867629315105473,-1.6211833459687108,-1.3341177240419766,-1.2876714628321861,-42.4375,935.375,-191.625
83.0,r,0.014261052899455876,-0.2864378090863311,0.8509525192057337,1.4610734114106718,0.589214751582804,0.12217410865759075,-0.20748057658113306,-41.1875,937.375,-187.3125
84.0,r,-0.6459307063449724,-0.5292193108341396,-1.2681111578198812,-2.6929683581138546,-0.9735849634057587,-0.31638617357650944,0.37800344887395193,-37.5625,937.1875,-185.9375
85.0,r,1.358096406886476,0.913831216534684,0.7733632366423158,1.7689711705914133,0.34081314314357064,-0.4277320887586261,-1.3800798065109157,-39.25,937.9375,-183.4375
86.0,r,-0.7985768838085885,-0.08364315640036747,0.020197087819650846,-0.04538475177153885,0.39733084579249944,1.2149071394408275,1.3826811269014743,-40.9375,938.5,-180.0
87.0,r,1.6443594603521396,-0.26887660337469943,2.1116245551478365,1.5564702523312937,0.7988386310177948,1.7950753501394356,0.3298954671039571,-38.1875,937.4375,-181.75
88.0,r,-3.790564173493144,-1.6316202404494549,-3.0472885920638144,-3.410618463902379,-1.9949397534849247,-2.9521875308412513,-2.1228143045496073,-45.4375,933.6875,-196.125
89.0,r,3.142355131185992,2.4076044798961176,1.7171337895496679,2.173712020077398,1.1546312601891568,1.5999834528504266,2.4267088944291406,-44.4375,932.875,-198.25
90.0,l,-0.950245448785017,-0.8342495086839445,-1.566239428801269,-0.7896041610781818,-0.06035612425893018,-1.840334689923514,-1.36670216610807,-45.8125,936.0,-192.25
91.0,l,-0.09725455691274101,0.04300297681599523,1.1592480165929833,1.1574619023265724,1.0012347823335261,1.775599159518193,1.7072509708630745,-44.375,936.25,-191.5625
92.0,l,1.1854201306850431,0.737358332261688,1.0283306480491101,0.019665534141440275,-0.950004348897035,0.013971228880652234,-1.7842603801338683,-45.625,935.875,-193.5
93.0,l,0.21523249371738212,0.5725227197925356,-0.7138948201574427,-0.6429102256834476,0.19939503881342252,-1.1715758682827717,0.020952691323250106,-46.0,936.3125,-188.5
94.0,l,-1.6316680185816868,-1.3036512757639624,-0.5540151940800817,0.248962752428067,0.41498996927122017,0.37109304876589144,0.6952790747270367,-44.3125,935.8125,-189.125
95.0,l,-0.15743524107962434,-0.7414642444996837,-0.35238901893858976,0.15467253043860552,-0.37703852103842744,-0.24559995227652973,0.38006651621591947,-45.75,935.5625,-189.5625
96.0,l,-0.1440913650812281,0.5732289961531806,-0.4251385918203409,-2.126745126638271,-1.5104130076756206,-0.5034426404655024,-1.0107652570427048,-46.8125,935.75,-187.6875
97.0,l,1.0620703125561588,0.13220847660005575,1.368470786831803,1.938040486339504,1.6689801109428108,1.5802612056346683,1.1808919399656224,-46.0625,937.1875,-190.375
98.0,l,-1.2764465324770096,-0.8474206076241874,-1.139675714417842,-0.7878871898607375,-0.7076440849301584,-0.8305175551255772,-0.3904105568099096,-47.5,936.5,-188.5
99.0,l,-0.2734142668823545,-0.4197884507647409,-0.2519910959528411,-0.9732257432746185,-0.48697782047987337,-0.0956062090224485,0.3655381926487115,-46.1875,937.3125,-184.875
100.0,l,0.589493689186607,0.5876002104101665,0.28005815007706314,1.4140652462164696,0.5193986907035862,-0.6747778694236681,-1.2693417038419599,-46.875,935.8125,-184.1875
101.0,l,0.7788631380241625,1.0310769595282707,0.3951016529122505,-1.3189978337316512,-0.13270040733606264,0.9191580312790139,0.3367932878164312,-45.375,937.9375,-183.0625
102.0,l,1.326081767910864,0.7052019933504609,1.1770437979993715,2.584014787038489,1.238969775048605,1.0122392245964957,0.549725836749116,-45.75,937.1875,-181.1875
103.0,l,-1.3345780929267077,-0.3329418151305158,-0.6393144423967348,-1.347215121100884,0.053996447551134225,-0.5429195689538897,0.3196944198450942,-46.8125,938.4375,-181.125
104.0,l,-0.037686950385313965,-1.4390356638046986,-0.014389843972543758,0.062211516221879946,-1.6761777774110387,-0.06112067932020204,-0.8920480168192807,-45.1875,936.4375,-181.375
105.0,l,0.91735548474022,2.206635570713765,0.529446395128999,1.1966518666900392,1.973402615945991,0.6424827538724238,1.7717499712713263,-46.4375,937.1875,-179.0625
106.0,l,-1.830107048854199,-2.2182303301046598,-1.7754580764217094,-1.9539603722670222,-1.835431334804239,-1.9728282031356437,-2.4358260914062324,-44.8125,939.625,-172.3125
107.0,l,0.48288302557484314,0.614442621130769,0.6524557181084782,0.7358432033370113,0.8391929864806964,0.44870627142957087,0.8704202984068717,-42.9375,939.9375,-171.625
108.0,l,0.8887674337415983,1.4603515503397588,1.0129695439925894,0.8969410958351255,0.7580465860829256,1.218621462389661,0.8038821772447965,-45.4375,937.9375,-176.0625
109.0,l,-3.5632316420622594,-4.463483282313109,-3.545031204738684,-4.117699251068025,-3.2524616688338712,-2.800501155971951,-2.5486811695028453,-46.75,938.9375,-175.5
110.0,n,4.420813498322402,5.314113496212884,4.0887718747359045,4.78547739922257,3.7287449660055065,2.744771505092939,2.879104096353659,-46.125,938.875,-176.6875
111.0,n,-0.1749253723259081,-1.2791494127861318,0.051102694582244396,-1.0272575220439146,-0.5391907204426841,0.20645026050298543,-0.10996881205242823,-46.9375,939.125,-182.25
112.0,n,-2.388544294559812,-1.4006709745295531,-2.4249373209604657,-1.3025527690048684,-1.2835617692783319,-1.209171843831842,-1.93662805873117,-47.3125,937.25,-184.3125
113.0,n,1.4120632547490712,0.4696425364728377,1.3766840769147588,1.6240806267712928,0.32131839652385585,0.06300547659114113,1.4503578788832208,-48.3125,936.25,-186.125
114.0,n,-1.1801098021473262,-0.36031996316382964,-1.2048453388096687,-1.6792655722883145,-0.6899235679547646,-1.4728390496129087,-1.598685733521754,-44.875,930.5625,-214.125
115.0,r,0.8448914836452088,0.32919318549055254,0.7852362221949157,0.7729262045557179,1.0130587524950079,2.2210006009747723,2.0812495059178713,-47.5625,926.0625,-226.625
116.0,r,-0.4047779720844781,-0.013980576770172093,-0.5569594504335504,-0.5386473558901989,-0.8803439818769653,-0.4687772230675296,-2.2475956461511823,-46.8125,927.0,-220.375
117.0,r,0.9671519206106789,-0.03692858332606116,1.2237831439648468,1.0549206684997379,1.3547549952614808,0.7310044309590371,3.0796625712439676,-46.25,929.8125,-210.5
118.0,r,-1.9874325580727437,-1.084858238971571,-1.5738134148214862,-2.9089354334145328,-2.2732656663376614,-1.2787857958531463,-3.7285187568884446,-44.0625,931.6875,-204.0625
119.0,r,1.2787274635090915,0.7613188814236146,0.8899396790542508,2.589337711107337,1.8663335907177778,0.5634448807290136,2.660496691255429,-43.375,934.8125,-195.9375
120.0,r,0.022347749911105892,0.7965350519650155,0.38859586895742837,0.427712086657363,0.08672529209142198,0.46239499771343817,-7.246879799895608,-42.125,935.625,-192.6875
121.0,r,-1.5083313181517652,-2.1173930871025686,-2.2344778923656907,-2.6050295496858404,-1.9646244398764199,-2.9166658448218,9.288425222010785,-38.5,934.9375,-192.9375
122.0,r,2.7625047983517184,2.1535515371174645,2.8249580898206257,2.9750425757328793,1.6426197213117464,2.9198130424231667,-2.0991821909792914,-39.375,935.5,-191.75
123.0,r,-1.8628315463033194,-0.665222052339903,-2.0495508674967415,-1.7367066482043856,-0.8356458966490706,-1.426613726795985,-2.162697458276289,-40.4375,936.5,-187.5
124.0,r,0.1764048541282366,0.10338638410204566,1.0965311027147568,1.2194191473867833,1.0849615342183383,1.2411435432759947,1.9746517048925671,-36.25,936.1875,-186.1875
125.0,r,1.3181736438440788,0.7592040739316855,0.49243417322504696,-0.6344160507756404,-0.2777342399536319,0.6709671898269589,-0.2765047038147341,-35.75,936.8125,-184.0
126.0,r,-0.12755814835639603,-0.5346139391715801,0.06035698097879208,0.4951648114655275,0.16240113373918622,-0.8577708322166072,-0.24117308002472987,-37.1875,938.4375,-176.0
127.0,r,0.052906586633861705,0.3856158586429315,-0.1265881203305923,-0.3192056461887066,0.08377818145774345,0.6703757448754462,-0.22193717672411628,-34.0,938.8125,-177.5
128.0,r,-0.5726050909823077,-0.3937900254197921,-0.17293093105690763,0.5911829776583484,-0.06112646475512156,-0.5903439406258194,1.4774177428245472,-34.75,938.0625,-182.125
129.0,r,-0.23354277381643834,0.009406657885642232,-0.8078931525369657,-1.8261623311858428,-0.939193575853681,-0.8697487844918271,-2.4123100592162174,-36.0,938.75,-177.375
130.0,r,-2.6383858627830823,-3.046606795429427,-1.1720656063352133,-1.1829499292452852,-1.310690495920568,-0.27150570488347875,-0.5452282691977661,-35.6875,937.5625,-177.375
131.0,r,3.706399737389521,2.762429465951895,1.7789546993201364,1.8934228645543807,1.0945008446368492,-0.13488442688581653,0.30481284416561766,-35.8125,938.5625,-179.4375
132.0,r,-0.5932331400286549,0.5650415106482638,0.5853788940374703,1.4850805417216681,1.2544372750133839,1.5931061666307078,2.11118175620817,-35.6875,938.1875,-177.0
133.0,r,-1.5959883266228376,-1.3665382506786636,-1.4556618292227086,-1.9393661450870328,-0.17399182353919218,-0.5279141700854327,1.2513625622830473,-35.8125,938.875,-173.1875
134.0,r,2.1302059036906367,2.2797807523420524,1.6090427628790223,1.1522420863546439,0.3064424332194901,0.29826043933333196,-1.8714177108645607,-33.25,938.9375,-177.0
135.0,r,-1.2846171273462115,-2.3724111995150525,-1.658121948409723,0.12248704449428874,-0.8272516367960038,-1.4474304467859112,-0.9135687416468736,-30.5625,938.5625,-175.5
136.0,r,-5.295148610188487,-8.11464558348685,0.7819845752259016,-4.682225351366209,-0.5252484844313353,-0.2752714368287411,0.40973497038395956,-31.5625,937.375,-179.25
137.0,r,12.549244191162325,16.282661328782247,-1.9262690440320076,9.048139532373291,4.211318031286333,1.5340273123206616,0.5684959826184613,-29.3125,935.8125,-189.875
138.0,r,-10.132541194590463,-11.041592300708544,1.5209224486710387,-8.068748246408704,-5.74670940944897,-1.3550212692717218,-2.4073611624976667,-24.0625,936.5625,-190.0
139.0,r,2.5329283412183154,5.250861494886998,0.44921745526011225,5.739394100923176,3.266820511628638,2.485140132793662,4.065555967770496,-23.0625,936.1875,-187.625
140.0,r,-12.347908037328635,-6.172708264930296,-10.804810144684783,-8.704856088039236,-2.3946741127161757,-3.3691411402086704,-5.217147030913456,-21.0625,936.5,-186.4375
141.0,r,41.67860926584977,17.581990466003212,34.38484024995073,16.389660504147948,4.482400409065233,7.279369630947848,9.164246910920978,-27.0625,927.5625,-213.0
142.0,r,-38.72646574086458,-16.374542387106356,-33.31406799040658,-11.996107348132785,-2.9693363993176964,-7.250327784768801,-7.833578698220692,-25.9375,930.8125,-207.25
143.0,r,12.891094255325369,5.43055909261634,13.36844051275076,1.8224136754621398,1.2909773079037499,3.340861378250306,2.0852949300755736,-11.125,927.625,-222.3125
144.0,n,-1.482282592311433,-3.124361409819859,-5.200731126009279,0.42565569112352025,-1.73616033165948,-1.8802662077026175,0.2815702767754026,-13.75,929.3125,-209.4375
145.0,n,-10.95023438694796,-2.1461310048539843,-1.152711662186081,-3.457243410341105,-2.537926638027274,-0.8354560376051031,-1.7458402291320403,-13.4375,930.625,-210.5
146.0,n,9.783626012328929,-1.6788307365254278,2.3623578354491137,0.4673150171069574,-0.1775998960838824,0.7777880266982997,0.3697610444966599,-18.9375,933.0625,-202.5625
147.0,n,4.390730583084566,12.954284545341917,1.7416016858282095,6.65620514653499,7.737625513972821,1.733170580752838,2.6086194042085236,-21.0,936.3125,-191.375
148.0,n,-2.6322889210824076,-8.103259524153039,-0.7369371825281881,-3.5722765082943124,-4.476107541879981,-0.7137171786642384,-1.4327312703214006,-20.125,936.5,-185.875
149.0,n,0.03390082230339499,2.146999411522786,1.2362060795869247,1.0529148294380566,0.5707972737928353,0.7680884102579976,1.354159683893803,-30.25,935.6875,-194.4375
150.0,n,-2.929534482837538,-3.6050450259721156,-2.35014872613547,-2.6244041639696936,-1.524382426353517,-1.4510728655574539,-2.7815489707436027,-31.375,935.0,-198.125
151.0,r,1.2917062559305772,1.1544027167043116,0.14777081964769195,0.4354162995551096,0.1741015571960868,-0.31569304807175824,1.349083559269352,-30.9375,935.625,-192.0
152.0,r,0.005794377464619174,-0.05113332274976858,0.08228088895908263,-0.6575931937494057,-0.8493484507414361,0.8572070148234094,-1.3560803717647592,-27.6875,938.4375,-181.875
153.0,r,-0.8379307082407037,0.546237181469122,-0.36362565534844127,1.105822147888511,1.6498732044281224,-0.5243359697000025,2.2496271972858213,-25.1875,937.875,-180.125
154.0,r,1.1766248548529186,0.043556700823875076,1.1001790791897457,-0.023448402108914253,-0.3935240051841979,0.15890401808408672,-1.8816098152810588,-26.5,936.0625,-186.8125
155.0,r,-1.2447765600200782,0.5119176050436404,-0.43498635270711894,0.05223403822753335,0.6501766848993734,1.2958557881085997,1.4330334822130284,-29.5,936.25,-187.8125
156.0,r,2.1665345668963782,-0.038009857611337454,1.1845667865088647,0.914345924319113,0.0786774760237239,-0.5198910435384123,0.7633984910571987,-31.375,937.5625,-188.375
157.0,r,-2.2395540708093566,-0.12752252434011074,-1.7663281497724825,-0.7787166162248016,0.021894762303405743,-0.7967122766003276,-0.5911181429594408,-31.9375,937.4375,-185.0625
158.0,r,1.228164540924541,-0.548112385434342,0.5857970141350883,0.1309287556634508,-0.9695255739018112,-0.5015616277988905,-1.8552395749358264,-32.0,937.9375,-184.9375
159.0,n,1.3783860617802175,2.0325895400244036,1.3543356865798568,0.8654228238788155,1.5613904292966934,2.0540873986744947,2.1233198988566517,-31.0625,936.8125,-185.375
160.0,n,0.11644998722259198,-0.6467980596540629,0.8447935308784956,0.8700249778308768,-0.012547746931002962,0.24220673936595005,-0.7538551273307879,-28.4375,937.875,-182.875
161.0,n,-1.2176775461236402,0.5456460534731068,-1.5660503685064804,-0.658117867259743,-0.26884774798746547,-2.4992329147880543,0.14972484728180188,-28.5625,937.625,-180.375
162.0,n,-2.1029270375774005,-3.1322137892501085,-2.123695002291045,-2.295167710436062,-2.2124179967151396,-0.7134502006863479,-1.3858952884041624,-31.25,937.625,-183.4375
163.0,l,0.6316161694059811,1.0086273073432421,1.0741962512254493,0.4706885113937943,1.378416983251078,1.3056206716581495,0.9464671007641345,-28.875,938.25,-179.0625
164.0,l,1.0907631447148034,0.46356304930052233,0.36941534512775326,0.7209700714377677,-0.03900765744253488,0.11932192403638282,1.013502619243183,-31.75,939.1875,-173.3125
165.0,l,-0.34980344655195167,0.23016009553586161,0.4404532575743574,-0.1323379355716604,-0.25766709057845516,-0.3955060454843856,-1.7146163658593974,-33.0,937.9375,-181.0625
166.0,l,0.013981047334683354,-0.39748273294186515,-0.670614617637496,0.2553508527728068,0.7151823157150814,0.47567153486966696,0.7881684286440943,-32.0625,937.875,-183.25
167.0,l,0.6598118735834592,-0.528148221218228,0.7109937140203537,-0.058153674025273404,-0.12722895333753478,0.25921261855137373,-0.31979027514280534,-31.625,936.9375,-189.5625
168.0,l,-0.15647414306342922,1.8253570880899814,0.6760210195213662,0.9100195555567729,0.29351539897136797,0.6703750570625926,0.47214003918343805,-33.0,937.9375,-186.375
169.0,l,-0.25547173422328845,-1.6112101587300358,-1.0111172222549791,-0.6668377604200221,-0.26691902490988867,-0.8658272801939917,0.32576644703117885,-32.625,937.6875,-180.75
170.0,l,0.08832569860817904,0.7058491152670012,0.3032255267744049,0.353276366138713,0.7719066429162208,0.26638267293749945,0.49497834290355647,-39.5,936.1875,-186.3125
171.0,l,-0.6836208586881487,-0.20233561779796005,-0.39140999270957194,0.08119751736237728,-0.39514894480695173,0.4603242449254232,0.3317019072532753,-39.75,938.1875,-181.875
172.0,l,1.4332073045375155,0.8937864180418315,0.4677603164121844,-0.4901543605701163,-0.1878999067327968,-0.5246893772132705,-0.5899560249854103,-34.5625,939.1875,-176.5625
173.0,l,-0.7268608471229527,-0.3243973792519323,-0.04453448443881825,0.4388263731979023,0.057154733033703,0.64656964964896,-0.32839086451849286,-37.9375,938.3125,-178.375
174.0,l,-0.23225737306768418,-1.0904965922912997,0.05287795241778667,-1.3281046013481541,-1.1684392570650028,-0.6396955678108809,-1.3888035570498642,-39.875,938.875,-178.75
175.0,l,0.11666626479856404,1.0330564325915583,-0.7442302088082754,0.3092191325645035,0.6144029405351931,-0.5922175487612765,1.5866814688501658,-36.4375,938.1875,-176.375
176.0,l,-2.7832356522290946,-2.8980555045814445,-1.3386306850380238,-1.4041015619842276,-1.1683827369054625,-0.5910833429818849,-0.8836261084335256,-32.625,939.0,-172.3125
177.0,l,3.224954529234952,3.1415723132057565,1.8100308218165833,1.7925117873694711,0.5784913286974793,1.1437907591860448,-0.5344394676384915,-36.25,940.6875,-172.0
178.0,l,0.054932782194069774,-0.7255332772378219,-0.5820152963542233,-0.8431293824844145,0.24916853377814618,-0.8682255880562573,0.41711993428925953,-38.125,939.25,-172.3125
179.0,l,-3.6020969552746602,-2.629372714892706,-1.5938482561452616,-1.030451172579892,-2.1014562661189298,-0.7109873738826439,-1.4308613859639794,-39.0625,940.8125,-169.8125
180.0,l,7.973217886255548,6.453989336905782,4.798105835512125,4.789996101874337,5.298079171177755,3.156829645669579,3.516611177383874,-38.3125,941.0,-163.875
181.0,l,-7.616836476626892,-5.6284845575552005,-4.893539650250914,-4.724420088752007,-4.5467517061548115,-4.504768969457056,-3.490062528058232,-41.3125,941.6875,-163.375
182.0,l,2.182815814035606,1.843329010069776,2.2261959538237157,1.9958070882626675,2.093802505177836,3.0380080495141026,2.229411011496585,-41.375,941.125,-164.0
183.0,l,-0.4307355495602153,-0.7304285330502629,-0.6179629336077849,-0.5968700391914477,-1.0476922038804748,-0.834468494733105,-1.2503359749793521,-41.4375,941.4375,-163.1875
184.0,l,0.6452530289331225,0.1291431776486554,-0.35121384795867483,-1.5789752335719653,-0.41185634623214196,-0.6492733256846982,0.7294237132705078,-42.5,941.375,-160.5625
185.0,l,0.2500672856855674,0.06131353666409859,1.175223806167705,2.2262771866547397,0.6051799450539911,1.6115904557483989,-0.32195480938433546,-41.4375,941.5,-160.9375
186.0,n,-1.9914773014493516,-1.0543203946238833,-1.9915354132588354,-2.8514425169398505,-1.4352733189553732,-1.9933184223180156,-0.8685213939278602,-40.5625,942.375,-159.25
187.0,n,1.8032313577767736,1.8994844475085824,1.6566783132487901,3.056762358092428,2.32283306312933,2.3217589773257443,1.7827584497653233,-39.875,942.6875,-157.75
188.0,n,3.313115794657301,1.3819483035605113,1.8764601502511027,1.4577046596854732,1.4564228960522065,-0.0033213611432870494,0.43929534663089226,-41.4375,943.75,-159.375
189.0,n,-4.711872508658997,-2.5239066907193473,-2.7530013389469423,-2.887540961185744,-2.9360030649147237,-0.5315252955126507,-1.351896664178448,-41.375,942.5,-158.6875
190.0,n,1.6299882818799356,1.5201256411813642,1.8659667905967288,2.4423429671760397,2.4594842164799253,0.13107308252852398,1.1180572532842674,-39.625,942.6875,-155.125
191.0,n,-0.2137111642464586,-1.186911235458337,-0.39295643071378666,-1.7693907724745253,-1.816667561585744,0.5381764899052464,-0.6947008620293676,-37.3125,942.0,-160.3125
192.0,n,1.1427552760169646,0.7937552486765439,0.4440458318263841,1.9136873232470675,1.310950060650344,0.7115322783690811,1.9906667756484842,-40.4375,942.125,-163.0
193.0,n,-2.4220518415316983,-1.7220943159925584,-2.645396073344252,-3.366318538603371,-2.400185075512237,-3.1435137990594413,-3.2016831798935392,-44.625,938.25,-177.1875
194.0,n,3.529448827289946,2.9001182207920526,2.614811981352192,1.1541146284717938,2.0934178571183644,3.7289068997494224,2.227956041993234,-43.75,937.0625,-178.5625
195.0,r,-2.376659417256205,-1.1209668324237987,-0.8773351243947127,0.9530174481587576,-0.5173819210791383,-2.972849669818923,-0.5856657755995238,-42.875,938.3125,-180.9375
196.0,r,-0.1715173768676601,-0.4542691861086805,-0.1814024538705394,-0.970789007165119,-0.051288287303336656,0.8741174969081036,-1.2927145486953466,-40.4375,938.3125,-172.625
197.0,r,0.7314750463548945,0.7528460949004248,0.5857396626054956,0.8802936705810398,0.7534684013916424,0.9257569266570872,2.5466184308902045,-39.0,938.875,-171.8125
198.0,r,-0.9630738647705855,-0.8411047190287573,-1.1428690934072605,-0.26625594648638684,-0.7713845948782864,-2.2484717546234423,-2.0295224885090897,-37.25,939.3125,-175.4375
199.0,r,-0.18789946373850677,-0.5264616018096471,-0.6368672058608769,-1.4818687381667108,-1.1572616408207126,0.4590216226321954,-0.24608496541043712,-41.375,937.6875,-183.625
200.0,r,0.789749824687562,0.4692676155611365,1.408959039769367,1.5486280865366535,1.5858207710232715,0.9695443927167501,0.42697829183921016,-39.875,938.25,-180.5
201.0,r,-0.40090125549459776,0.5200717854773877,-0.3724437812078437,-0.5258558233356535,-0.20612364198105945,0.26473608915741637,0.8921858002162185,-35.9375,938.875,-178.6875
202.0,r,-1.2318643545293362,-1.3547691319076962,-1.4178481006558583,-0.7115353804059343,-1.2581645292426096,-1.7090133724104724,-0.7506550820083105,-35.5,937.875,-180.0
203.0,r,2.3907437512375926,1.4446083195225177,1.274113764443854,0.9498680640540026,0.853767111619871,0.607681712235216,-0.20805823814186636,-36.875,936.25,-184.125
204.0,r,-1.6053725800814374,-0.8107292988155048,-0.47708897544664375,-0.3904183042812972,-0.22117538747251922,-0.7213273730855795,-1.1463405394939232,-38.0625,937.625,-182.25
205.0,r,1.9577791530433524,0.8113793851844024,1.4796794071021373,1.075742928506689,0.5423724572233404,2.441857234461795,2.2964229823068845,-40.4375,937.8125,-180.125
206.0,l,-2.755002816085112,-1.5251502018463217,-1.9473131061378577,-1.6396352446565166,-1.082066795336637,-3.1792677823829263,-2.558394538651939,-42.3125,938.0625,-182.0625
207.0,l,3.97379067861779,2.7957857184554835,3.1074542348851297,2.230707444313489,2.024315493494712,3.8186736589303223,2.913624841602441,-42.625,938.9375,-178.3125
208.0,l,-3.6669101378853757,-2.447437597411487,-1.620098034156472,-1.1125980443645185,-1.1695470237558512,-1.7373632857215935,-0.41767051287964113,-42.1875,939.5625,-171.3125
209.0,l,0.0067835228250005455,-0.6886294871569694,-1.7139681316503432,-1.966815960509155,-1.1211478022856138,-1.0906642817965029,-1.9913095121969038,-42.875,940.0625,-171.625
210.0,l,1.5230333933347031,1.7959672467520504,1.5192955039804485,2.0397483817602784,0.7070058951705128,0.19099416954685922,0.17333716145177322,-41.5625,940.5,-168.375
211.0,l,-3.8465304563149116,-3.5248741830587584,-1.7681009553222988,-2.5765416929250753,-1.498656516445772,-0.29423256136043446,-0.8373711347426643,-40.4375,940.875,-169.0
212.0,l,4.607942763246649,3.8717738943580593,2.128542190650309,2.737665428653178,2.236064622470532,1.138373533588187,2.1878084458557785,-38.3125,941.3125,-166.3125
213.0,r,-1.2289551702749457,-0.1995671566229007,0.30678426773105705,-0.05561993276948999,-0.2572843592123125,0.4925156448340255,-0.8286138041737843,-38.1875,943.0,-159.5
214.0,r,-0.8575411460763379,-1.8242614724621402,-2.0510986518707046,-2.972338228498049,-2.1583773425327473,-2.0250826393663353,-0.4629685988061117,-35.5,941.6875,-161.9375
215.0,r,1.7308111386244698,2.177488552002303,1.8847489792405154,3.740568643814364,3.303039802415507,2.403663639338733,1.8341379390852004,-37.0625,942.0,-168.125
216.0,r,-0.2162054284880037,-0.17883064745328556,0.04486627218745675,-0.24837876685894525,-0.16767010627108436,-0.27571183211817035,0.032861280314950135,-37.0,941.5,-163.125
217.0,r,-1.5889290174219957,-1.207263503166412,-1.7116553591276042,-1.2973262793295426,-1.3117223242297555,-0.6653794975347957,-1.6202180216159552,-36.8125,941.3125,-164.25
218.0,r,2.2435064926638977,1.1808173890357025,1.1545001487548776,0.6460566511426891,0.31789218391624957,-0.46551701291953146,0.3139103447788,-36.8125,941.1875,-165.1875
219.0,r,0.33782911373713254,0.30061292576556686,0.9165901545944501,1.1206632159810463,0.7574650803014936,1.9606585210705307,1.5029453536163528,-38.4375,941.0,-164.25
220.0,r,-2.4704209208912897,-1.9654719731180823,-2.4733713226620364,-3.165489317111438,-1.8897247240210566,-3.0820031637635066,-2.7998472243444166,-37.625,940.25,-161.5625
221.0,r,-0.2802916583467254,0.33462614215989567,0.933237833159157,0.8844537515825366,0.3415165691565446,1.2250773936653288,1.6094763457774168,-39.3125,942.125,-161.4375
222.0,r,0.3371062424549304,0.359912591810946,-0.18664456991058387,0.8579346183096082,0.8556332996033726,-0.26230658790756617,-0.10334396188541337,-42.125,939.125,-171.5625
223.0,r,0.18697350179373826,-0.4327789942862303,0.4747864458543204,-0.6643267773186201,-0.5787260456505644,1.286597624561496,0.7135279342420153,-41.5625,939.5,-170.375
224.0,r,1.562725504521641,1.7282852762609522,1.1590578776600957,1.6394975448347784,0.9220521401725673,0.38298415011093606,-0.09465391030842601,-42.625,938.25,-178.8125
225.0,r,-1.4312759743724306,-1.7409936249399298,-1.45886526625657,-1.5766484586070004,-0.40066306057272705,-0.5563464484882283,-0.8836497766117757,-43.0625,938.75,-175.1875
226.0,r,-1.103730976723689,-0.5426126090203609,-0.40591209542569734,-0.9378989971263931,-1.105540883578566,-1.3482676204825934,-0.5805574677050781,-40.1875,940.25,-171.4375
227.0,n,1.32593493025794,1.4823736211254985,0.6955449101554905,2.2655976637197264,1.3722478501480162,0.8601978046545482,1.6401529819992136,-42.75,939.25,-172.1875
228.0,n,0.38157075167690074,-0.7323205417946228,-0.12965056102974676,-0.6977100936697064,-0.6244075420051486,1.1383157079590944,-0.2694538826652257,-43.9375,940.125,-168.0625
229.0,n,-0.6043817721153009,-0.0409156630234379,0.5605528123218825,0.16644303167926194,0.3406713996781167,-0.5466229692596738,0.08730035619699225,-41.0,940.5,-163.6875
230.0,n,-1.297311321075731,-1.1990809494105152,-1.1651803082043926,-0.7820643418065701,-1.1206678364511622,-0.2976580803057069,-1.710055460528215,-41.6875,941.125,-165.625
231.0,n,1.076293824894077,1.4044744573986372,0.026598910225544843,-0.3974555110491209,0.20631083675906955,-1.5575853228886904,0.6180856314865978,-44.875,937.875,-175.3125
232.0,n,1.4071726344309587,1.5613791730201396,1.6049967375118606,2.098006633492555,2.029581106875631,2.6674926783031796,1.1857887530360949,-43.5625,933.75,-200.75
233.0,n,-1.1411753867760182,-1.8116004128591543,-1.2919706485597808,-1.83780818851588,-1.5365156180507393,-1.7262036876602191,-0.4004503521370939,-42.0,932.375,-198.625
234.0,n,-0.07752814637866777,0.49031033604131175,1.063811996869069,1.8409979525497242,1.1977475366620667,0.8344304660216869,0.8519986980970712,-46.25,935.6875,-194.75
235.0,n,-0.9450042096942826,-1.9248507650913862,-2.4230144746980193,-3.1531496086178428,-3.1241949466788883,-2.920538687470712,-3.1134124842295003,-44.375,936.625,-184.9375
236.0,n,2.8309531380753654,3.871977464606807,2.9277985413276357,3.75802741673056,3.6221023035152244,3.22184747097197,3.0025890913211253,-42.4375,940.75,-171.875
237.0,n,-1.1676998147546935,-1.680864824378925,-0.4151026823136408,-1.3571498737888792,-1.052672794438238,0.46977896765223065,-0.4378955760009926,-41.875,940.25,-168.6875
238.0,n,0.4076306607938346,-0.14000956478098953,-0.8135957694062286,-0.49845370853228893,-0.3012521767861073,-0.9401034432531312,-1.3666107749010121,-42.125,942.375,-166.0625
239.0,l,0.6962266647490649,0.6230664122817727,1.7065120682601282,0.6731296037271557,0.2475041983380062,-0.3408067827676941,1.6061695969518281,-39.125,940.875,-163.375
240.0,l,-1.9042304003399302,-0.755593729037402,-2.074974867339725,-1.0153445867490116,-0.500346236008727,-0.4981600692044952,-0.8991831112701045,-41.75,940.6875,-165.625
241.0,l,-1.0320949603977092,-0.9864308778312275,-1.6745620348362673,-0.3454743848367443,-0.6394471978055404,0.0773192518347164,0.4056354925100177,-42.0,942.0,-159.5625
242.0,l,3.209737101352397,0.7368955427761957,3.164819227871359,1.7094690961431929,1.5035531046523427,0.9523117666588464,0.024305369671050757,-39.8125,943.875,-155.6875
243.0,l,-3.971476561763062,0.3237163472291986,-2.5093181973275596,-2.428902202247641,-1.505934599016612,-0.5397322006940195,-0.9952305900526458,-38.1875,943.8125,-156.625
244.0,l,3.216127322844271,-0.9680970310466412,1.8960979902741657,1.4392915399051298,0.47788824566784877,0.3256437487940923,-0.030029515516775518,-38.3125,944.25,-150.75
245.0,l,0.3719582399046924,2.3986650276959334,0.6009909006901246,0.9291260078643718,1.6850776847341642,0.4619253098172278,1.7883470171279496,-39.8125,943.3125,-150.75
246.0,l,-1.2433720433879898,-0.6854231095982325,-1.0236702851491752,-0.9524054136460257,-1.2699431691981233,-0.7819990874399597,-1.2103772528642711,-41.625,941.3125,-165.625
247.0,l,-0.12129881838553729,-1.3881397699944062,0.5742015849957913,0.7392733021847555,-0.25785693772193385,0.06905256441186203,-0.06429958173022493,-46.125,937.9375,-183.5
248.0,l,-0.37046085449546995,0.4191793580491479,-1.0471208511203716,-1.874954938553439,-0.6667427761496105,-1.3191234127339841,-1.11106366407674,-41.625,940.875,-164.25
249.0,l,0.5721139039852494,-0.27837647338681315,-1.2973559208301797,0.7180564930171631,0.1935547922204596,0.6159133769719206,-0.05743334594042244,-38.6875,940.3125,-163.875
250.0,l,0.021894600434647544,0.8041135205853848,3.206409685745543,1.3062346094355632,1.179019202788825,1.0879378152929085,2.1850141417796762,-47.6875,938.5,-180.8125
251.0,l,-0.06800800362908956,-0.2758199563703406,-1.5357066240782897,-2.0397523555656614,-1.004430209294878,-0.13266137444393417,-0.7415214577299247,-49.875,935.875,-186.125
252.0,l,2.83230537623086,2.5783967759559285,2.2788923021498766,3.6892708544964714,2.9294182639873854,1.5315143519535281,1.8696966726642044,-48.0,936.5,-186.8125
253.0,l,-4.175635275512657,-3.6567560865683437,-2.948042829287814,-3.597745776681836,-3.909859572825806,-2.561624102128898,-2.6857997433791,-48.5625,938.4375,-184.9375
254.0,l,1.4798260808632515,1.5799539057705199,1.3996300769985404,2.232558161606072,2.3199596510416467,0.9241672604879091,1.2535302355026192,-43.875,939.3125,-173.25
255.0,l,0.7274362802340892,-0.1775863155402924,0.006227261679291587,0.18460362059393673,-0.04773547928165885,0.32211374820017025,-0.09209033313883765,-39.0625,939.0,-171.375
256.0,l,-1.7235693920864408,-0.8508164267573102,-1.7706948219455518,-2.5236239746107216,-2.1522486592298353,-2.261477866756628,-1.8159753640576317,-42.0625,940.0,-170.1875
257.0,l,1.2614190820218605,0.8855219937847285,1.9768477863982044,1.6343210442444498,1.3884607126773412,1.7707479691515682,0.19971907275813988,-40.0,942.125,-164.1875
258.0,l,1.7125422525950098,0.5289946658681742,1.390367073508844,0.45019124475358396,0.7308444731021497,2.6156697908318347,2.957736219910584,-40.8125,941.25,-166.8125
259.0,l,-0.2576044252850725,1.3168317605344222,-0.7456369633742884,1.487113325288226,0.6453607960191375,-2.524286947022967,-1.1078423937564466,-43.0,939.8125,-173.375
260.0,l,-2.451989659374259,-2.6091393458431162,-1.6091078624427333,-2.8717130060451437,-1.6710014037394163,0.21863482034259593,0.07297541673975183,-44.9375,940.4375,-172.25
261.0,l,0.5674311319474519,0.3532670426824957,0.11689773755239094,1.659232173949121,0.7856822058464861,-0.7550073473217894,-1.0465091510816358,-42.75,940.3125,-170.5
262.0,l,1.2880417138454046,1.3335333109244125,1.271253457817758,0.00014535341638656973,0.6059198848699004,1.9358152410954534,1.4101418008600342,-39.875,940.25,-165.5
263.0,l,-1.9458477634728975,-2.743371611745631,-2.201948785461208,-2.9139339475779145,-2.3220149426024093,-2.746251228796644,-2.2962105586192054,-41.5625,940.375,-166.1875
264.0,r,0.6356016187867496,1.847557422062614,1.0307279510896616,1.7992225280353336,1.3718668341433087,1.3500874844616728,0.7229834056365607,-40.0,940.375,-168.5625
265.0,r,0.07884816502260833,0.010324927945585387,0.9698426511048945,0.6587463461097102,0.13344406444998755,0.09264559270507698,0.37965701346261477,-40.9375,939.9375,-172.5625
266.0,r,-0.7193650676021128,-0.6183776804120505,-2.1668305856580874,-1.0243399699816924,0.0394843913040819,-0.7138744614697007,1.7194384063105745,-43.5,941.0625,-170.4375
267.0,r,-1.1045836197214915,-1.9068381029171213,0.11574488202056932,-0.16078011912217585,-1.9347367717161332,-0.5972053745394397,-3.413938760313744,-43.0,939.4375,-171.875
268.0,r,3.5819073194957,3.0315026739803286,2.439818465947715,1.3448200735027176,2.3815456324930064,1.8344062811674244,2.1058505648357158,-40.6875,939.25,-177.0625
269.0,r,-1.2951885082055599,-0.5796416889111948,-1.1234417084486112,-0.9213616026207433,-0.8979355966090522,-0.9317772618931844,-0.5152921632100067,-42.125,939.3125,-174.0625
270.0,r,-0.29116390200983405,-0.2731175410266455,-0.137856501297597,0.06925941907210018,-0.25067010642640136,-0.04340913705603157,-0.8761202903309545,-38.9375,940.1875,-169.9375
271.0,r,1.9532536142086017,1.6200145178627436,0.8192720898167916,1.2832930254328903,1.1033781166172207,0.125208970063181,1.498689425532582,-40.625,940.125,-172.0
272.0,r,-1.9738983231740195,-2.012311887758369,-0.3294031908755426,-0.9327032153149897,-0.4844035848196586,1.41514705338528,-0.5651607009606946,-43.4375,939.3125,-171.0
273.0,r,-2.0236764301485515,-0.2348699664210742,-2.262295317353293,-1.6653612208550748,-1.1745590127168462,-3.6065204959352752,-1.448857771213742,-41.8125,940.9375,-173.0
274.0,r,6.839560770046752,4.1850888852700985,4.647258737883052,4.183947387576853,3.48566292660468,4.414109789089161,3.176117317993248,-38.6875,938.5625,-176.0
275.0,r,-5.860339020886573,-4.821214121230683,-2.294228170001594,-3.6811390066188534,-3.2868195325091576,-2.3834363452347427,-1.2527766902747275,-40.8125,940.0,-172.0
276.0,r,2.1465747186763093,2.0197389481218644,-0.9050913466076772,1.5146803328943053,1.0770431158768243,2.493457789344,-1.241282701240208,-36.625,940.0,-171.9375
277.0,r,-4.666566620989543,-4.182786354775165,-2.2211909467464057,-3.1936936469585864,-2.351697329578556,-4.179430934624901,1.391490359064794,-37.4375,941.6875,-165.25
278.0,r,4.086771579931214,3.757923441851856,2.9475891017706375,3.8129106989584587,2.022833135847297,2.256893070950316,-0.29084208714755627,-42.9375,938.125,-179.75
279.0,r,-1.800710124368075,-0.7519150811598947,1.1456665888524133,-0.8041892330395566,1.548085370494391,1.2761338926063002,-0.1630041227065455,-39.5625,937.625,-180.0
280.0,r,12.147970065571515,4.498427730109163,1.753558966782669,8.184534250081573,1.1542581356568744,2.3485018190644986,9.937089804936917,-41.875,919.75,-242.3125
281.0,r,-14.338477917700422,-3.9474772535558684,-2.5196156307725395,-9.539797218173554,-2.3009163736227154,-3.985227496054133,-13.262114254366779,-35.4375,932.25,-197.625
282.0,r,14.70704876513469,0.2750271813929605,-0.8514757174460235,2.2996118222460518,0.46094471317854974,1.1615923636940069,5.630815297986976,-35.5625,934.5,-185.875
283.0,r,-24.363701736602472,-1.470630758176798,0.5356440531025728,-2.7004228089221662,-2.115007914673429,-2.284627720983628,-3.8406611262370824,-4.25,929.75,-214.4375
284.0,r,16.346179146182713,2.0998150956348103,3.2520710099668593,3.3361419507898855,2.976335506695795,1.8897913774812969,2.0610052687523055,-11.875,933.25,-200.1875
285.0,r,-2.987668876821124,-4.816298994503639,-5.056990252151454,0.22933579027543238,-1.7183636147677204,-0.12561458807491227,-0.46374721009442227,-23.4375,930.625,-214.75
286.0,r,-0.43679420794084217,9.86091182526811,-0.8527509028393897,-2.994626765966557,-1.305364448484493,-0.8226549285797152,0.9936125105586707,-40.0625,932.0625,-195.6875
287.0,r,2.980172861978248,-5.612704893548873,4.755213186899183,3.474685381133839,3.6481525882868207,1.3944775328371846,-1.0025127869183728,-44.625,938.5,-157.0
288.0,l,-3.3564496254885925,0.29916922937578055,-2.025422363396973,-2.304919628624265,-2.9165077514386235,-1.305909396375714,0.389370675750444,-37.1875,933.125,-216.75
289.0,l,2.21025402301992,-3.195226635776885,-0.5176887433007942,0.1689434513852093,0.4065980792439097,0.26362555237411994,-0.4138894477657358,-32.4375,937.9375,-178.75
290.0,l,-5.288133426815342,1.8517964431774152,-0.37711849042662127,-1.7905498840794445,-0.6275828436102563,-0.8676291354095865,-1.275083877409137,-41.125,939.125,-173.5625
291.0,l,3.3366234851886865,-0.8630078537308821,-1.1362484795596886,0.032213898347105155,0.21064242639836153,-0.3017168916748557,0.3373939568608887,-43.6875,937.25,-180.4375
292.0,l,1.5919183738209453,2.3838787020465833,1.1297274678237827,1.9547531220689798,0.30206123876216523,1.255162026777461,1.1295141540952682,-37.375,939.4375,-177.875
293.0,l,-2.4043718045900464,-0.35966060724667975,0.11990068662561135,0.4832094442900624,1.5139505767949155,-0.10166688407570292,0.8176119136191226,-35.625,938.8125,-174.5
294.0,l,-6.245079177925538,-2.3856006693578538,0.2723768772151903,-4.642697125704049,-1.433491761836331,-0.35756638079124603,-1.873924563643258,-34.625,941.3125,-168.125
295.0,l,26.891097473495595,8.795191874364162,8.748351610102727,14.191829400850414,4.454827319651883,4.0349087957314,4.529042360271806,-32.625,910.375,-262.0
296.0,l,-23.072645331548117,-7.463689297117559,-15.159444049463065,-11.77159112939454,-4.488430978531201,-2.975722254847389,-6.571185764177323,-26.5,926.1875,-210.0625
297.0,l,-0.4094955670341733,4.4415170718537516,10.810569538874017,1.167804815260414,1.094409427874854,-0.04179329290047258,4.810553623258062,-20.5625,936.25,-181.8125
298.0,l,0.6691748581164861,-8.899800031284427,-5.881126512624658,-3.226900428235488,-3.589156939274234,-2.5662473430199886,-2.617665786268409,-52.0625,917.75,-247.4375
299.0,l,6.563878291976142,6.220717392340977,0.321666173901192,5.354239774887164,4.251530681854441,3.799876786581573,3.1478331568097144,-44.875,927.8125,-230.125
300.0,l,-10.01976964739743,-6.408466432645961,-1.392520705557869,-5.881926237059111,-4.91485063788852,-3.7246043237960604,-4.33621504058299,-39.6875,930.8125,-215.625
301.0,l,10.51109790518549,9.379699114369076,5.911992651541375,7.209087501244712,6.744042548516269,5.083981134094742,4.30199350957941,-72.25,925.5,-212.8125
302.0,l,-4.40600488693892,-4.500275669037788,-3.0369076649518676,-4.153953939473993,-3.9042602240682873,-4.229794922761476,-3.0165103296769677,-75.125,926.625,-220.875
303.0,l,3.1319099702398763,-0.5142895139986577,-0.32596682351134676,1.3054765882819375,0.12752886043059136,2.159363233134708,-0.9230921904554357,-71.8125,924.5625,-226.5
304.0,l,-4.761970006733263,-16.584725055704247,3.1638878583138554,-7.250189480059858,-14.637244612211127,-0.45054994157543715,-8.761945019967206,-75.44948630136986,927.4400684931506,-221.42551369863014
